wavelength (nm), n, k
2.40000000e2, 1.68440000, 3.33120000
2.42000000e2, 1.73170000, 3.35700000
2.44000000e2, 1.78010000, 3.37770000
2.46000000e2, 1.83180000, 3.40670000
2.48000000e2, 1.87740000, 3.42190000
2.50000000e2, 1.92360000, 3.44580000
2.52000000e2, 1.97170000, 3.47210000
2.54000000e2, 2.01000000, 3.49650000
2.56000000e2, 2.06100000, 3.52250000
2.58000000e2, 2.10720000, 3.53820000
2.60000000e2, 2.16310000, 3.55970000
2.62000000e2, 2.20990000, 3.58310000
2.64000000e2, 2.25710000, 3.59910000
2.66000000e2, 2.30940000, 3.61910000
2.68000000e2, 2.36270000, 3.63280000
2.70000000e2, 2.41480000, 3.65110000
2.72000000e2, 2.46360000, 3.66000000
2.74000000e2, 2.51630000, 3.67550000
2.76000000e2, 2.57230000, 3.68990000
2.78000000e2, 2.63130000, 3.70610000
2.80000000e2, 2.68160000, 3.71210000
2.82000000e2, 2.73910000, 3.72200000
2.84000000e2, 2.79930000, 3.73030000
2.86000000e2, 2.85290000, 3.73640000
2.88000000e2, 2.91300000, 3.73870000
2.90000000e2, 2.96840000, 3.74390000
2.92000000e2, 3.02690000, 3.74740000
2.94000000e2, 3.08260000, 3.74600000
2.96000000e2, 3.14190000, 3.74660000
2.98000000e2, 3.20320000, 3.74440000
3.00000000e2, 3.26140000, 3.73850000
3.02000000e2, 3.32368100, 3.73328800
3.04000000e2, 3.38310000, 3.72650000
3.06000000e2, 3.44091900, 3.71806200
3.08000000e2, 3.49840000, 3.70790000
3.10000000e2, 3.55817500, 3.69581900
3.12000000e2, 3.61740000, 3.68210000
3.14000000e2, 3.67342500, 3.66689300
3.16000000e2, 3.72830000, 3.65040000
3.18000000e2, 3.78320600, 3.63324400
3.20000000e2, 3.83810000, 3.61430000
3.22000000e2, 3.89345000, 3.59215600
3.24000000e2, 3.94890000, 3.56830000
3.26000000e2, 4.00530600, 3.54383100
3.28000000e2, 4.05950000, 3.51850000
3.30000000e2, 4.10636900, 3.49286200
3.32000000e2, 4.15260000, 3.46560000
3.34000000e2, 4.20565000, 3.43550000
3.36000000e2, 4.25810000, 3.40280000
3.38000000e2, 4.30354400, 3.36600000
3.40000000e2, 4.34640000, 3.32910000
3.42000000e2, 4.38909300, 3.29720000
3.44000000e2, 4.43120000, 3.26550000
3.46000000e2, 4.47343100, 3.23016900
3.48000000e2, 4.51480000, 3.19340000
3.50000000e2, 4.55450000, 3.15630600
3.52000000e2, 4.59270000, 3.11830000
3.54000000e2, 4.62933100, 3.07888700
3.56000000e2, 4.66430000, 3.03890000
3.58000000e2, 4.69734300, 2.99936200
3.60000000e2, 4.72890000, 2.95920000
3.62000000e2, 4.75954300, 2.91710700
3.64000000e2, 4.78860000, 2.87480000
3.66000000e2, 4.81519400, 2.83415000
3.68000000e2, 4.84050000, 2.79340000
3.70000000e2, 4.86582500, 2.75076200
3.72000000e2, 4.88990000, 2.70820000
3.74000000e2, 4.91163800, 2.66750000
3.76000000e2, 4.93180000, 2.62740000
3.78000000e2, 4.95060000, 2.58738700
3.80000000e2, 4.96860000, 2.54700000
3.82000000e2, 4.98696900, 2.50501900
3.84000000e2, 5.00410000, 2.46320000
3.86000000e2, 5.01811800, 2.42345600
3.88000000e2, 5.03100000, 2.38410000
3.90000000e2, 5.04462500, 2.34344400
3.92000000e2, 5.05740000, 2.30340000
3.94000000e2, 5.06799400, 2.26598700
3.96000000e2, 5.07750000, 2.22920000
3.98000000e2, 5.08692500, 2.19104400
4.00000000e2, 5.09520000, 2.15350000
4.02000000e2, 5.10127500, 2.11831900
4.04000000e2, 5.10610000, 2.08420000
4.06000000e2, 5.10995000, 2.05058100
4.08000000e2, 5.11380000, 2.01700000
4.10000000e2, 5.11908700, 1.98246900
4.12000000e2, 5.12470000, 1.94800000
4.14000000e2, 5.13046300, 1.91446200
4.16000000e2, 5.13500000, 1.88130000
4.18000000e2, 5.13723800, 1.84831200
4.20000000e2, 5.13610000, 1.81530000
4.22000000e2, 5.15986300, 1.79772600
4.24000000e2, 5.17548600, 1.77601900
4.26000000e2, 5.18402600, 1.75078900
4.28000000e2, 5.18654500, 1.72264600
4.30000000e2, 5.18410000, 1.69220000
4.32000000e2, 5.17775200, 1.66006200
4.34000000e2, 5.16855800, 1.62684300
4.36000000e2, 5.15757800, 1.59315300
4.38000000e2, 5.14587300, 1.55960200
4.40000000e2, 5.13450000, 1.52680000
4.42000000e2, 5.13010300, 1.49853300
4.44000000e2, 5.12676100, 1.47144200
4.46000000e2, 5.12413800, 1.44534500
4.48000000e2, 5.12189700, 1.42005900
4.50000000e2, 5.11970000, 1.39540000
4.52000000e2, 5.11579300, 1.37051600
4.54000000e2, 5.11161300, 1.34606000
4.56000000e2, 5.10717500, 1.32201600
4.58000000e2, 5.10249800, 1.29836800
4.60000000e2, 5.09760000, 1.27510000
4.62000000e2, 5.09255200, 1.25205500
4.64000000e2, 5.08730400, 1.22939400
4.66000000e2, 5.08186000, 1.20713400
4.68000000e2, 5.07622400, 1.18529700
4.70000000e2, 5.07040000, 1.16390000
4.72000000e2, 5.06425500, 1.14309800
4.74000000e2, 5.05796300, 1.12274100
4.76000000e2, 5.05156500, 1.10281500
4.78000000e2, 5.04509800, 1.08330600
4.80000000e2, 5.03860000, 1.06420000
4.82000000e2, 5.03213600, 1.04554900
4.84000000e2, 5.02571200, 1.02725400
4.86000000e2, 5.01936000, 1.00928600
4.88000000e2, 5.01311200, 9.91611000e-1
4.90000000e2, 5.00700000, 9.74200000e-1
4.92000000e2, 5.00155200, 9.56992000e-1
4.94000000e2, 4.99618000, 9.39992000e-1
4.96000000e2, 4.99079200, 9.23176000e-1
4.98000000e2, 4.98529600, 9.06520000e-1
5.00000000e2, 4.97960000, 8.90000000e-1
5.02000000e2, 4.97309000, 8.73394000e-1
5.04000000e2, 4.96632700, 8.56925000e-1
5.06000000e2, 4.95934900, 8.40619000e-1
5.08000000e2, 4.95219300, 8.24502000e-1
5.10000000e2, 4.94490000, 8.08600000e-1
5.12000000e2, 4.93767600, 7.92989000e-1
5.14000000e2, 4.93034800, 7.77630000e-1
5.16000000e2, 4.92291200, 7.62538000e-1
5.18000000e2, 4.91536400, 7.47723000e-1
5.20000000e2, 4.90770000, 7.33200000e-1
5.22000000e2, 4.89986800, 7.19073000e-1
5.24000000e2, 4.89192400, 7.05241000e-1
5.26000000e2, 4.88387600, 6.91691000e-1
5.28000000e2, 4.87573200, 6.78414000e-1
5.30000000e2, 4.86750000, 6.65400000e-1
5.32000000e2, 4.85942500, 6.53473000e-1
5.34000000e2, 4.85121800, 6.41579000e-1
5.36000000e2, 4.84283000, 6.29498000e-1
5.38000000e2, 4.83420800, 6.17011000e-1
5.40000000e2, 4.82530000, 6.03900000e-1
5.42000000e2, 4.81383900, 5.87456000e-1
5.44000000e2, 4.80254600, 5.70570000e-1
5.46000000e2, 4.79192300, 5.53647000e-1
5.48000000e2, 4.78247300, 5.37089000e-1
5.50000000e2, 4.77470000, 5.21300000e-1
5.52000000e2, 4.77425000, 5.08434000e-1
5.54000000e2, 4.77519700, 4.96705000e-1
5.56000000e2, 4.77676000, 4.86079000e-1
5.58000000e2, 4.77815400, 4.76522000e-1
5.60000000e2, 4.77860000, 4.68000000e-1
5.62000000e2, 4.77287900, 4.61492000e-1
5.64000000e2, 4.76575100, 4.55696000e-1
5.66000000e2, 4.75754500, 4.50324000e-1
5.68000000e2, 4.74858600, 4.45088000e-1
5.70000000e2, 4.73920000, 4.39700000e-1
5.72000000e2, 4.73081500, 4.32333000e-1
5.74000000e2, 4.72238200, 4.24622000e-1
5.76000000e2, 4.71395100, 4.16666000e-1
5.78000000e2, 4.70557300, 4.08559000e-1
5.80000000e2, 4.69730000, 4.00400000e-1
5.82000000e2, 4.68943600, 3.92621000e-1
5.84000000e2, 4.68171500, 3.84898000e-1
5.86000000e2, 4.67412800, 3.77245000e-1
5.88000000e2, 4.66666000, 3.69675000e-1
5.90000000e2, 4.65930000, 3.62200000e-1
5.92000000e2, 4.65213200, 3.54759000e-1
5.94000000e2, 4.64502400, 3.47458000e-1
5.96000000e2, 4.63794000, 3.40326000e-1
5.98000000e2, 4.63084400, 3.33397000e-1
6.00000000e2, 4.62370000, 3.26700000e-1
6.02000000e2, 4.61597000, 3.20757000e-1
6.04000000e2, 4.60824500, 3.14987000e-1
6.06000000e2, 4.60061500, 3.09298000e-1
6.08000000e2, 4.59317100, 3.03599000e-1
6.10000000e2, 4.58600000, 2.97800000e-1
6.12000000e2, 4.57995200, 2.91099000e-1
6.14000000e2, 4.57416800, 2.84291000e-1
6.16000000e2, 4.56854800, 2.77465000e-1
6.18000000e2, 4.56299200, 2.70706000e-1
6.20000000e2, 4.55740000, 2.64100000e-1
6.22000000e2, 4.55103200, 2.57946000e-1
6.24000000e2, 4.54458800, 2.52065000e-1
6.26000000e2, 4.53812800, 2.46491000e-1
6.28000000e2, 4.53171200, 2.41258000e-1
6.30000000e2, 4.52540000, 2.36400000e-1
6.32000000e2, 4.51979300, 2.32865000e-1
6.34000000e2, 4.51427500, 2.29542000e-1
6.36000000e2, 4.50877000, 2.26238000e-1
6.38000000e2, 4.50320300, 2.22755000e-1
6.40000000e2, 4.49750000, 2.18900000e-1
6.42000000e2, 4.49103700, 2.12925000e-1
6.44000000e2, 4.48442500, 2.06574000e-1
6.46000000e2, 4.47772300, 2.00041000e-1
6.48000000e2, 4.47099400, 1.93519000e-1
6.50000000e2, 4.46430000, 1.87200000e-1
6.52000000e2, 4.45797100, 1.82310000e-1
6.54000000e2, 4.45173100, 1.77751000e-1
6.56000000e2, 4.44557700, 1.73457000e-1
6.58000000e2, 4.43950200, 1.69362000e-1
6.60000000e2, 4.43350000, 1.65400000e-1
6.62000000e2, 4.42760100, 1.61180000e-1
6.64000000e2, 4.42175700, 1.57044000e-1
6.66000000e2, 4.41595100, 1.53008000e-1
6.68000000e2, 4.41017100, 1.49088000e-1
6.70000000e2, 4.40440000, 1.45300000e-1
6.72000000e2, 4.39853600, 1.41817000e-1
6.74000000e2, 4.39267600, 1.38458000e-1
6.76000000e2, 4.38682800, 1.35202000e-1
6.78000000e2, 4.38100000, 1.32023000e-1
6.80000000e2, 4.37520000, 1.28900000e-1
6.82000000e2, 4.36945500, 1.25703000e-1
6.84000000e2, 4.36375000, 1.22542000e-1
6.86000000e2, 4.35808700, 1.19418000e-1
6.88000000e2, 4.35246800, 1.16337000e-1
6.90000000e2, 4.34690000, 1.13300000e-1
6.92000000e2, 4.34141200, 1.10314000e-1
6.94000000e2, 4.33597200, 1.07379000e-1
6.96000000e2, 4.33057600, 1.04497000e-1
6.98000000e2, 4.32522000, 1.01670000e-1
7.00000000e2, 4.31990000, 9.89000000e-2
7.02000000e2, 4.31448700, 9.59220000e-2
7.04000000e2, 4.30913400, 9.30730000e-2
7.06000000e2, 4.30386700, 9.04230000e-2
7.08000000e2, 4.29871300, 8.80420000e-2
7.10000000e2, 4.29370000, 8.60000000e-2
7.12000000e2, 4.28912400, 8.53960000e-2
7.14000000e2, 4.28467600, 8.50120000e-2
7.16000000e2, 4.28031600, 8.46600000e-2
7.18000000e2, 4.27600400, 8.41520000e-2
7.20000000e2, 4.27170000, 8.33000000e-2
7.22000000e2, 4.26698300, 8.04920000e-2
7.24000000e2, 4.26229000, 7.73200000e-2
7.26000000e2, 4.25767400, 7.39520000e-2
7.28000000e2, 4.25319300, 7.05560000e-2
7.30000000e2, 4.24890000, 6.73000000e-2
7.32000000e2, 4.24548100, 6.52220000e-2
7.34000000e2, 4.24220500, 6.34030000e-2
7.36000000e2, 4.23896700, 6.17930000e-2
7.38000000e2, 4.23566700, 6.03420000e-2
7.40000000e2, 4.23220000, 5.90000000e-2
7.42000000e2, 4.22813000, 5.76000000e-2
7.44000000e2, 4.22377300, 5.62400000e-2
7.46000000e2, 4.21911100, 5.49000000e-2
7.48000000e2, 4.21412600, 5.35600000e-2
7.50000000e2, 4.20880000, 5.22000000e-2
7.52000000e2, 4.20261100, 5.05950000e-2
7.54000000e2, 4.19616900, 4.89820000e-2
7.56000000e2, 4.18958200, 4.73900000e-2
7.58000000e2, 4.18295700, 4.58530000e-2
7.60000000e2, 4.17640000, 4.44000000e-2
7.62000000e2, 4.17023400, 4.31720000e-2
7.64000000e2, 4.16429700, 4.20640000e-2
7.66000000e2, 4.15864300, 4.10800000e-2
7.68000000e2, 4.15332600, 4.02240000e-2
7.70000000e2, 4.14840000, 3.95000000e-2
7.72000000e2, 4.14439100, 3.91840000e-2
7.74000000e2, 4.14076100, 3.89400000e-2
7.76000000e2, 4.13744600, 3.87040000e-2
7.78000000e2, 4.13438000, 3.84120000e-2
7.80000000e2, 4.13150000, 3.80000000e-2
7.82000000e2, 4.12865300, 3.68760000e-2
7.84000000e2, 4.12588200, 3.56360000e-2
7.86000000e2, 4.12314600, 3.43480000e-2
7.88000000e2, 4.12039900, 3.30800000e-2
7.90000000e2, 4.11760000, 3.19000000e-2
7.92000000e2, 4.11443300, 3.13180000e-2
7.94000000e2, 4.11119400, 3.08490000e-2
7.96000000e2, 4.10790900, 3.04510000e-2
7.98000000e2, 4.10460300, 3.00820000e-2
8.00000000e2, 4.10130000, 2.97000000e-2
8.02000000e2, 4.09808900, 2.89160000e-2
8.04000000e2, 4.09491400, 2.81200000e-2
8.06000000e2, 4.09178500, 2.73560000e-2
8.08000000e2, 4.08871100, 2.66680000e-2
8.10000000e2, 4.08570000, 2.61000000e-2
8.12000000e2, 4.08284100, 2.61570000e-2
8.14000000e2, 4.08004200, 2.63060000e-2
8.16000000e2, 4.07729300, 2.64780000e-2
8.18000000e2, 4.07458300, 2.65990000e-2
8.20000000e2, 4.07190000, 2.66000000e-2
8.22000000e2, 4.06919100, 2.58460000e-2
8.24000000e2, 4.06649700, 2.49690000e-2
8.26000000e2, 4.06381800, 2.40390000e-2
8.28000000e2, 4.06115200, 2.31260000e-2
8.30000000e2, 4.05850000, 2.23000000e-2
8.32000000e2, 4.05585900, 2.16300000e-2
8.34000000e2, 4.05322900, 2.11850000e-2
8.36000000e2, 4.05061100, 2.10350000e-2
8.38000000e2, 4.04800100, 2.12500000e-2
8.40000000e2, 4.04540000, 2.19000000e-2
