wavelength (nm), n, k
2.75829102e2, 3.25080000, 3.28230000
2.76752637e2, 3.28870000, 3.25650000
2.77682377e2, 3.33350000, 3.22900000
2.78618385e2, 3.37160000, 3.20300000
2.79560724e2, 3.41700000, 3.17960000
2.80509460e2, 3.45420000, 3.14770000
2.81464657e2, 3.47970000, 3.10490000
2.82426381e2, 3.50650000, 3.07200000
2.83394700e2, 3.52660000, 3.04330000
2.84369682e2, 3.54630000, 3.01610000
2.85351395e2, 3.56430000, 2.98260000
2.86339911e2, 3.57710000, 2.94610000
2.87335298e2, 3.59990000, 2.91190000
2.88337631e2, 3.62210000, 2.87660000
2.89346981e2, 3.64570000, 2.83760000
2.90363422e2, 3.66420000, 2.79050000
2.91387030e2, 3.68210000, 2.74600000
2.92417880e2, 3.69580000, 2.71400000
2.93456050e2, 3.70360000, 2.68070000
2.94501618e2, 3.71070000, 2.65190000
2.95554663e2, 3.71500000, 2.61950000
2.96615266e2, 3.71450000, 2.59100000
2.97683509e2, 3.71730000, 2.56580000
2.98759473e2, 3.72210000, 2.53480000
2.99843244e2, 3.72570000, 2.50230000
3.00934906e2, 3.72610000, 2.47220000
3.02034546e2, 3.72600000, 2.44410000
3.03142253e2, 3.72560000, 2.41780000
3.04258114e2, 3.72250000, 2.38990000
3.05382220e2, 3.72090000, 2.36470000
3.06514663e2, 3.71810000, 2.33940000
3.07655537e2, 3.71820000, 2.31800000
3.08804935e2, 3.71650000, 2.29820000
3.09962953e2, 3.71720000, 2.27640000
3.11129690e2, 3.71300000, 2.25860000
3.12305243e2, 3.70680000, 2.24170000
3.13489712e2, 3.70060000, 2.22350000
3.14683201e2, 3.69280000, 2.20860000
3.15885812e2, 3.68560000, 2.19260000
3.17097650e2, 3.68300000, 2.17570000
3.18318822e2, 3.67900000, 2.15870000
3.19549436e2, 3.67720000, 2.14460000
3.20789602e2, 3.67580000, 2.13110000
3.22039432e2, 3.67500000, 2.11890000
3.23299039e2, 3.66930000, 2.10940000
3.24568537e2, 3.66540000, 2.09780000
3.25848045e2, 3.65970000, 2.08850000
3.27137682e2, 3.65270000, 2.08090000
3.28437566e2, 3.64820000, 2.07160000
3.29747823e2, 3.64360000, 2.06370000
3.31068575e2, 3.63990000, 2.05450000
3.32399950e2, 3.63690000, 2.04550000
3.33742076e2, 3.63720000, 2.03660000
3.35095085e2, 3.63880000, 2.02640000
3.36459108e2, 3.64050000, 2.01570000
3.37834281e2, 3.64100000, 2.00340000
3.39220742e2, 3.64140000, 1.99330000
3.40618630e2, 3.64120000, 1.98340000
3.42028086e2, 3.63970000, 1.97680000
3.43449256e2, 3.63680000, 1.97440000
3.44882285e2, 3.63530000, 1.97050000
3.46327322e2, 3.63360000, 1.96770000
3.47784520e2, 3.63260000, 1.96660000
3.49254032e2, 3.63300000, 1.96400000
3.50736015e2, 3.63360000, 1.96180000
3.52230629e2, 3.63300000, 1.95950000
3.53738035e2, 3.63350000, 1.95770000
3.55258399e2, 3.63420000, 1.95600000
3.56791889e2, 3.63580000, 1.95500000
3.58338674e2, 3.63800000, 1.95350000
3.59898930e2, 3.64010000, 1.95100000
3.61472832e2, 3.64370000, 1.94840000
3.63060560e2, 3.64710000, 1.94750000
3.64662298e2, 3.65110000, 1.94600000
3.66278231e2, 3.65560000, 1.94500000
3.67908550e2, 3.65960000, 1.94590000
3.69553446e2, 3.66460000, 1.94670000
3.71213118e2, 3.66920000, 1.94810000
3.72887763e2, 3.67480000, 1.94980000
3.74577587e2, 3.68090000, 1.95050000
3.76282796e2, 3.68670000, 1.95150000
3.78003601e2, 3.69450000, 1.95230000
3.79740218e2, 3.70120000, 1.95420000
3.81492866e2, 3.70850000, 1.95530000
3.83261766e2, 3.71710000, 1.95670000
3.85047147e2, 3.72610000, 1.95910000
3.86849240e2, 3.73620000, 1.96020000
3.88668280e2, 3.74640000, 1.96230000
3.90504508e2, 3.75730000, 1.96550000
3.92358169e2, 3.76930000, 1.96690000
3.94229511e2, 3.78110000, 1.96960000
3.96118790e2, 3.79440000, 1.97160000
3.98026264e2, 3.80800000, 1.97390000
3.99952198e2, 3.82330000, 1.97420000
4.01896860e2, 3.83980000, 1.97530000
4.03860525e2, 3.85810000, 1.97620000
4.05843474e2, 3.87670000, 1.97650000
4.07845991e2, 3.89670000, 1.97700000
4.09868368e2, 3.91760000, 1.97790000
4.11910901e2, 3.93880000, 1.97710000
4.13973894e2, 3.96040000, 1.97660000
4.16057655e2, 3.98380000, 1.97520000
4.18162500e2, 4.00800000, 1.97400000
4.20288750e2, 4.03300000, 1.97120000
4.22436734e2, 4.05960000, 1.96780000
4.24606785e2, 4.08750000, 1.96380000
4.26799247e2, 4.11580000, 1.95830000
4.29014468e2, 4.14590000, 1.95140000
4.31252804e2, 4.17710000, 1.94190000
4.33514620e2, 4.20790000, 1.92940000
4.35800286e2, 4.23910000, 1.91440000
4.38110181e2, 4.27160000, 1.89770000
4.40444694e2, 4.30300000, 1.87920000
4.42804219e2, 4.33360000, 1.85940000
4.45189161e2, 4.36340000, 1.83760000
4.47599932e2, 4.39260000, 1.81570000
4.50036956e2, 4.42060000, 1.79270000
4.52500662e2, 4.44920000, 1.76860000
4.54991491e2, 4.47690000, 1.74320000
4.57509894e2, 4.50450000, 1.71650000
4.60056331e2, 4.53220000, 1.68840000
4.62631273e2, 4.56060000, 1.65900000
4.65235202e2, 4.58830000, 1.62810000
4.67868609e2, 4.61550000, 1.59480000
4.70531997e2, 4.64280000, 1.55830000
4.73225883e2, 4.66970000, 1.51910000
4.75950792e2, 4.69480000, 1.47630000
4.78707264e2, 4.71720000, 1.43000000
4.81495850e2, 4.73650000, 1.38020000
4.84317114e2, 4.75300000, 1.32730000
4.87171636e2, 4.76470000, 1.27240000
4.90060005e2, 4.77120000, 1.21650000
4.92982828e2, 4.77310000, 1.16040000
4.95940725e2, 4.76940000, 1.10430000
4.98934331e2, 4.76220000, 1.04900000
5.01964297e2, 4.75090000, 9.96100000e-1
5.05031288e2, 4.73610000, 9.45200000e-1
5.08135989e2, 4.71840000, 8.98480000e-1
5.11279098e2, 4.69880000, 8.54750000e-1
5.14461333e2, 4.67840000, 8.13730000e-1
5.17683429e2, 4.65780000, 7.75990000e-1
5.20946140e2, 4.63650000, 7.40500000e-1
5.24250238e2, 4.61490000, 7.07790000e-1
5.27596516e2, 4.59280000, 6.77530000e-1
5.30985787e2, 4.57010000, 6.49990000e-1
5.34418885e2, 4.54790000, 6.23670000e-1
5.37896665e2, 4.52560000, 5.99250000e-1
5.41420006e2, 4.50360000, 5.77270000e-1
5.44989808e2, 4.48170000, 5.57190000e-1
5.48606997e2, 4.46050000, 5.38260000e-1
5.52272522e2, 4.44030000, 5.19900000e-1
5.55987360e2, 4.42050000, 5.02090000e-1
5.59752511e2, 4.40150000, 4.84720000e-1
5.63569006e2, 4.38310000, 4.68750000e-1
5.67437901e2, 4.36490000, 4.53680000e-1
5.71360282e2, 4.34700000, 4.39350000e-1
5.75337268e2, 4.32880000, 4.25530000e-1
5.79370006e2, 4.31140000, 4.13010000e-1
5.83459677e2, 4.29420000, 4.00380000e-1
5.87607494e2, 4.27590000, 3.89190000e-1
5.91814708e2, 4.25800000, 3.78150000e-1
5.96082602e2, 4.24050000, 3.67390000e-1
6.00412500e2, 4.22380000, 3.56380000e-1
6.04805762e2, 4.20730000, 3.46510000e-1
6.09263790e2, 4.19200000, 3.37650000e-1
6.13788026e2, 4.17610000, 3.29870000e-1
6.18379957e2, 4.16110000, 3.22000000e-1
6.23041112e2, 4.14730000, 3.15270000e-1
6.27773070e2, 4.13320000, 3.09220000e-1
6.32577456e2, 4.11820000, 3.04590000e-1
6.37455945e2, 4.10430000, 2.98300000e-1
6.42410266e2, 4.09130000, 2.89980000e-1
6.47442200e2, 4.07860000, 2.82340000e-1
6.52553586e2, 4.06640000, 2.74600000e-1
6.57746320e2, 4.05510000, 2.67530000e-1
6.63022360e2, 4.04390000, 2.60030000e-1
6.68383727e2, 4.03320000, 2.54950000e-1
6.73832507e2, 4.02320000, 2.49870000e-1
6.79370856e2, 4.01270000, 2.47210000e-1
6.85001002e2, 4.00110000, 2.45310000e-1
6.90725244e2, 3.98980000, 2.41580000e-1
6.96545962e2, 3.97910000, 2.37010000e-1
7.02465616e2, 3.96830000, 2.34720000e-1
7.08486750e2, 3.95840000, 2.31870000e-1
7.14611996e2, 3.94870000, 2.25180000e-1
7.20844077e2, 3.93990000, 2.18960000e-1
7.27185814e2, 3.93060000, 2.14490000e-1
7.33640126e2, 3.92280000, 2.09100000e-1
7.40210038e2, 3.91560000, 2.03770000e-1
7.46898682e2, 3.90840000, 2.01030000e-1
7.53709309e2, 3.90250000, 1.96600000e-1
7.60645284e2, 3.89520000, 1.93550000e-1
7.67710101e2, 3.88770000, 1.93440000e-1
7.74907383e2, 3.88040000, 1.89450000e-1
7.82240891e2, 3.87230000, 1.86330000e-1
7.89714531e2, 3.86450000, 1.83410000e-1
7.97332356e2, 3.85690000, 1.79660000e-1
8.05098580e2, 3.85070000, 1.76020000e-1
8.13017582e2, 3.84490000, 1.70780000e-1
8.21093916e2, 3.83950000, 1.64170000e-1
8.29332316e2, 3.83330000, 1.59230000e-1
8.37737711e2, 3.82650000, 1.54740000e-1
8.46315231e2, 3.82050000, 1.51480000e-1
8.55070216e2, 3.81450000, 1.45980000e-1
8.64008232e2, 3.80810000, 1.43700000e-1
8.73135080e2, 3.80210000, 1.40650000e-1
8.82456806e2, 3.79660000, 1.38400000e-1
8.91979722e2, 3.79120000, 1.37810000e-1
9.01710409e2, 3.78480000, 1.33830000e-1
9.11655745e2, 3.77880000, 1.30120000e-1
9.21822909e2, 3.77130000, 1.28950000e-1
9.32219408e2, 3.76450000, 1.26300000e-1
9.42853090e2, 3.75970000, 1.26440000e-1
9.53732164e2, 3.75440000, 1.24380000e-1
9.64865224e2, 3.74920000, 1.22360000e-1
9.76261270e2, 3.74420000, 1.20370000e-1
9.87929731e2, 3.73920000, 1.18430000e-1
9.99880494e2, 3.73440000, 1.16510000e-1
