wavelength (nm), n, k
2.75829102e2, 3.17910000, 3.29140000
2.76752637e2, 3.22110000, 3.27460000
2.77682377e2, 3.25610000, 3.25640000
2.78618385e2, 3.29480000, 3.23550000
2.79560724e2, 3.34370000, 3.21120000
2.80509460e2, 3.38430000, 3.17200000
2.81464657e2, 3.43320000, 3.13220000
2.82426381e2, 3.45980000, 3.10170000
2.83394700e2, 3.47390000, 3.07140000
2.84369682e2, 3.49610000, 3.03080000
2.85351395e2, 3.53050000, 2.99510000
2.86339911e2, 3.55010000, 2.96140000
2.87335298e2, 3.56910000, 2.93190000
2.88337631e2, 3.58860000, 2.90350000
2.89346981e2, 3.61580000, 2.86590000
2.90363422e2, 3.63590000, 2.82160000
2.91387030e2, 3.65800000, 2.78480000
2.92417880e2, 3.66470000, 2.74840000
2.93456050e2, 3.67200000, 2.71560000
2.94501618e2, 3.68240000, 2.68420000
2.95554663e2, 3.69490000, 2.64700000
2.96615266e2, 3.69210000, 2.61520000
2.97683509e2, 3.69340000, 2.58450000
2.98759473e2, 3.68890000, 2.55500000
2.99843244e2, 3.69560000, 2.52370000
3.00934906e2, 3.69640000, 2.49380000
3.02034546e2, 3.69920000, 2.47130000
3.03142253e2, 3.69960000, 2.44640000
3.04258114e2, 3.70790000, 2.42460000
3.05382220e2, 3.71340000, 2.40250000
3.06514663e2, 3.71340000, 2.37730000
3.07655537e2, 3.71090000, 2.35500000
3.08804935e2, 3.70670000, 2.33160000
3.09962953e2, 3.70030000, 2.30420000
3.11129690e2, 3.69530000, 2.28150000
3.12305243e2, 3.68450000, 2.25660000
3.13489712e2, 3.68080000, 2.23300000
3.14683201e2, 3.67880000, 2.20980000
3.15885812e2, 3.68170000, 2.19500000
3.17097650e2, 3.68000000, 2.18340000
3.18318822e2, 3.67440000, 2.17350000
3.19549436e2, 3.67020000, 2.16380000
3.20789602e2, 3.66660000, 2.15350000
3.22039432e2, 3.66410000, 2.13640000
3.23299039e2, 3.65800000, 2.11910000
3.24568537e2, 3.64820000, 2.10470000
3.25848045e2, 3.64150000, 2.08970000
3.27137682e2, 3.64280000, 2.07380000
3.28437566e2, 3.63910000, 2.06840000
3.29747823e2, 3.63540000, 2.05620000
3.31068575e2, 3.63230000, 2.04730000
3.32399950e2, 3.63220000, 2.03980000
3.33742076e2, 3.63050000, 2.03340000
3.35095085e2, 3.62910000, 2.02520000
3.36459108e2, 3.62680000, 2.01640000
3.37834281e2, 3.62360000, 2.01290000
3.39220742e2, 3.62370000, 2.00580000
3.40618630e2, 3.62890000, 1.99910000
3.42028086e2, 3.62700000, 1.99450000
3.43449256e2, 3.62760000, 1.98360000
3.44882285e2, 3.62810000, 1.97770000
3.46327322e2, 3.62880000, 1.97240000
3.47784520e2, 3.62800000, 1.96900000
3.49254032e2, 3.62740000, 1.96640000
3.50736015e2, 3.62820000, 1.96170000
3.52230629e2, 3.63000000, 1.95920000
3.53738035e2, 3.63080000, 1.95590000
3.55258399e2, 3.63090000, 1.95510000
3.56791889e2, 3.63050000, 1.95350000
3.58338674e2, 3.63040000, 1.95100000
3.59898930e2, 3.63320000, 1.94930000
3.61472832e2, 3.63570000, 1.94860000
3.63060560e2, 3.63930000, 1.94900000
3.64662298e2, 3.64260000, 1.94870000
3.66278231e2, 3.64770000, 1.94800000
3.67908550e2, 3.65320000, 1.94640000
3.69553446e2, 3.65820000, 1.94610000
3.71213118e2, 3.66260000, 1.94610000
3.72887763e2, 3.66580000, 1.94710000
3.74577587e2, 3.67100000, 1.94660000
3.76282796e2, 3.67720000, 1.94520000
3.78003601e2, 3.68310000, 1.94640000
3.79740218e2, 3.69080000, 1.94800000
3.81492866e2, 3.69870000, 1.94940000
3.83261766e2, 3.70740000, 1.94940000
3.85047147e2, 3.71670000, 1.94980000
3.86849240e2, 3.72620000, 1.95210000
3.88668280e2, 3.73590000, 1.95320000
3.90504508e2, 3.74610000, 1.95550000
3.92358169e2, 3.75690000, 1.95700000
3.94229511e2, 3.76810000, 1.95750000
3.96118790e2, 3.78100000, 1.95930000
3.98026264e2, 3.79470000, 1.96170000
3.99952198e2, 3.80960000, 1.96480000
4.01896860e2, 3.82540000, 1.96580000
4.03860525e2, 3.84200000, 1.96680000
4.05843474e2, 3.85970000, 1.96730000
4.07845991e2, 3.87760000, 1.96680000
4.09868368e2, 3.89670000, 1.96690000
4.11910901e2, 3.91630000, 1.96630000
4.13973894e2, 3.93650000, 1.96550000
4.16057655e2, 3.95900000, 1.96510000
4.18162500e2, 3.98140000, 1.96510000
4.20288750e2, 4.00530000, 1.96430000
4.22436734e2, 4.03010000, 1.96200000
4.24606785e2, 4.05560000, 1.95700000
4.26799247e2, 4.08280000, 1.95170000
4.29014468e2, 4.11010000, 1.94440000
4.31252804e2, 4.13970000, 1.93530000
4.33514620e2, 4.16910000, 1.92380000
4.35800286e2, 4.19940000, 1.91090000
4.38110181e2, 4.23100000, 1.89650000
4.40444694e2, 4.26140000, 1.88050000
4.42804219e2, 4.29120000, 1.86400000
4.45189161e2, 4.32040000, 1.84590000
4.47599932e2, 4.34900000, 1.82560000
4.50036956e2, 4.37780000, 1.80600000
4.52500662e2, 4.40640000, 1.78430000
4.54991491e2, 4.43370000, 1.76080000
4.57509894e2, 4.46060000, 1.73640000
4.60056331e2, 4.48840000, 1.70970000
4.62631273e2, 4.51580000, 1.68130000
4.65235202e2, 4.54180000, 1.65220000
4.67868609e2, 4.56770000, 1.62100000
4.70531997e2, 4.59440000, 1.58730000
4.73225883e2, 4.62000000, 1.55190000
4.75950792e2, 4.64610000, 1.51330000
4.78707264e2, 4.67100000, 1.47190000
4.81495850e2, 4.69250000, 1.42690000
4.84317114e2, 4.71120000, 1.37880000
4.87171636e2, 4.72760000, 1.32700000
4.90060005e2, 4.74070000, 1.27400000
4.92982828e2, 4.74850000, 1.22140000
4.95940725e2, 4.75090000, 1.16630000
4.98934331e2, 4.74910000, 1.11320000
5.01964297e2, 4.74240000, 1.06110000
5.05031288e2, 4.73320000, 1.00900000
5.08135989e2, 4.71920000, 9.61210000e-1
5.11279098e2, 4.70280000, 9.14940000e-1
5.14461333e2, 4.68340000, 8.72340000e-1
5.17683429e2, 4.66500000, 8.32600000e-1
5.20946140e2, 4.64610000, 7.94810000e-1
5.24250238e2, 4.62530000, 7.60820000e-1
5.27596516e2, 4.60350000, 7.27870000e-1
5.30985787e2, 4.58150000, 6.98780000e-1
5.34418885e2, 4.56020000, 6.69680000e-1
5.37896665e2, 4.53880000, 6.43520000e-1
5.41420006e2, 4.51820000, 6.19090000e-1
5.44989808e2, 4.49880000, 5.94250000e-1
5.48606997e2, 4.47830000, 5.72340000e-1
5.52272522e2, 4.45880000, 5.52890000e-1
5.55987360e2, 4.43810000, 5.33570000e-1
5.59752511e2, 4.41800000, 5.15710000e-1
5.63569006e2, 4.39870000, 4.98750000e-1
5.67437901e2, 4.38030000, 4.82750000e-1
5.71360282e2, 4.36300000, 4.66110000e-1
5.75337268e2, 4.34580000, 4.51810000e-1
5.79370006e2, 4.32900000, 4.37910000e-1
5.83459677e2, 4.31110000, 4.24750000e-1
5.87607494e2, 4.29290000, 4.13800000e-1
5.91814708e2, 4.27490000, 4.04310000e-1
5.96082602e2, 4.25600000, 3.94260000e-1
6.00412500e2, 4.23850000, 3.84020000e-1
6.04805762e2, 4.22170000, 3.74270000e-1
6.09263790e2, 4.20520000, 3.63470000e-1
6.13788026e2, 4.19010000, 3.50640000e-1
6.18379957e2, 4.17430000, 3.40380000e-1
6.23041112e2, 4.15940000, 3.30300000e-1
6.27773070e2, 4.14440000, 3.21330000e-1
6.32577456e2, 4.13090000, 3.12920000e-1
6.37455945e2, 4.11870000, 3.03580000e-1
6.42410266e2, 4.10590000, 2.95910000e-1
6.47442200e2, 4.09330000, 2.92020000e-1
6.52553586e2, 4.08100000, 2.88280000e-1
6.57746320e2, 4.06780000, 2.84330000e-1
6.63022360e2, 4.05560000, 2.78130000e-1
6.68383727e2, 4.04320000, 2.74010000e-1
6.73832507e2, 4.03150000, 2.69520000e-1
6.79370856e2, 4.01990000, 2.62960000e-1
6.85001002e2, 4.01020000, 2.57770000e-1
6.90725244e2, 4.00190000, 2.51050000e-1
6.96545962e2, 3.99250000, 2.44890000e-1
7.02465616e2, 3.98350000, 2.40230000e-1
7.08486750e2, 3.97450000, 2.36550000e-1
7.14611996e2, 3.96480000, 2.32790000e-1
7.20844077e2, 3.95470000, 2.28740000e-1
7.27185814e2, 3.94470000, 2.29000000e-1
7.33640126e2, 3.93430000, 2.25700000e-1
7.40210038e2, 3.92430000, 2.23710000e-1
7.46898682e2, 3.91660000, 2.22050000e-1
7.53709309e2, 3.90920000, 2.20060000e-1
7.60645284e2, 3.90150000, 2.16590000e-1
7.67710101e2, 3.89370000, 2.14470000e-1
7.74907383e2, 3.88530000, 2.12260000e-1
7.82240891e2, 3.87850000, 2.06620000e-1
7.89714531e2, 3.87070000, 2.01040000e-1
7.97332356e2, 3.86420000, 1.93160000e-1
8.05098580e2, 3.85720000, 1.84380000e-1
8.13017582e2, 3.85000000, 1.80290000e-1
8.21093916e2, 3.84390000, 1.76660000e-1
8.29332316e2, 3.83930000, 1.74720000e-1
8.37737711e2, 3.83500000, 1.70200000e-1
8.46315231e2, 3.82950000, 1.65290000e-1
8.55070216e2, 3.82390000, 1.58510000e-1
8.64008232e2, 3.81890000, 1.51290000e-1
8.73135080e2, 3.81280000, 1.45640000e-1
8.82456806e2, 3.80610000, 1.39000000e-1
8.91979722e2, 3.79850000, 1.35930000e-1
9.01710409e2, 3.79220000, 1.34770000e-1
9.11655745e2, 3.78520000, 1.35020000e-1
9.21822909e2, 3.77920000, 1.35090000e-1
9.32219408e2, 3.77350000, 1.31210000e-1
9.42853090e2, 3.76890000, 1.30020000e-1
9.53732164e2, 3.74360000, 1.33850000e-1
9.64865224e2, 3.73870000, 1.30950000e-1
9.76261270e2, 3.73400000, 1.28120000e-1
9.87929731e2, 3.72930000, 1.25330000e-1
9.99880494e2, 3.72480000, 1.22610000e-1
