wavelength (nm), n, k
2.75829102e2, 3.87470000, 3.02840000
2.76752637e2, 3.90540000, 2.99100000
2.77682377e2, 3.93350000, 2.95150000
2.78618385e2, 3.96400000, 2.89890000
2.79560724e2, 3.98820000, 2.84550000
2.80509460e2, 4.00540000, 2.79590000
2.81464657e2, 4.00620000, 2.73740000
2.82426381e2, 3.99860000, 2.68610000
2.83394700e2, 3.99100000, 2.63300000
2.84369682e2, 3.99570000, 2.58440000
2.85351395e2, 3.99170000, 2.53670000
2.86339911e2, 3.97810000, 2.49400000
2.87335298e2, 3.96850000, 2.45860000
2.88337631e2, 3.96060000, 2.42290000
2.89346981e2, 3.94470000, 2.38320000
2.90363422e2, 3.93000000, 2.34620000
2.91387030e2, 3.91260000, 2.31250000
2.92417880e2, 3.89450000, 2.28160000
2.93456050e2, 3.87690000, 2.25120000
2.94501618e2, 3.86230000, 2.22970000
2.95554663e2, 3.84360000, 2.20280000
2.96615266e2, 3.82320000, 2.17950000
2.97683509e2, 3.80560000, 2.15770000
2.98759473e2, 3.79060000, 2.13980000
2.99843244e2, 3.77540000, 2.11640000
3.00934906e2, 3.76030000, 2.09850000
3.02034546e2, 3.75040000, 2.08480000
3.03142253e2, 3.73260000, 2.06770000
3.04258114e2, 3.71670000, 2.05370000
3.05382220e2, 3.70520000, 2.04450000
3.06514663e2, 3.69380000, 2.03590000
3.07655537e2, 3.67800000, 2.02640000
3.08804935e2, 3.66480000, 2.01780000
3.09962953e2, 3.65340000, 2.01050000
3.11129690e2, 3.63920000, 1.99850000
3.12305243e2, 3.62870000, 1.99080000
3.13489712e2, 3.62130000, 1.98860000
3.14683201e2, 3.60710000, 1.98520000
3.15885812e2, 3.59790000, 1.98110000
3.17097650e2, 3.59210000, 1.97460000
3.18318822e2, 3.58660000, 1.97200000
3.19549436e2, 3.57970000, 1.97040000
3.20789602e2, 3.57270000, 1.97030000
3.22039432e2, 3.56630000, 1.96840000
3.23299039e2, 3.55890000, 1.96490000
3.24568537e2, 3.55410000, 1.96380000
3.25848045e2, 3.55110000, 1.96590000
3.27137682e2, 3.54340000, 1.96720000
3.28437566e2, 3.53630000, 1.96560000
3.29747823e2, 3.53400000, 1.96670000
3.31068575e2, 3.52980000, 1.96660000
3.32399950e2, 3.52580000, 1.96630000
3.33742076e2, 3.52350000, 1.96690000
3.35095085e2, 3.52360000, 1.96660000
3.36459108e2, 3.52400000, 1.96760000
3.37834281e2, 3.52630000, 1.96730000
3.39220742e2, 3.53190000, 1.96740000
3.40618630e2, 3.53320000, 1.96880000
3.42028086e2, 3.53560000, 1.97360000
3.43449256e2, 3.53950000, 1.98060000
3.44882285e2, 3.53980000, 1.98340000
3.46327322e2, 3.54290000, 1.98820000
3.47784520e2, 3.54650000, 1.99520000
3.49254032e2, 3.55040000, 2.00070000
3.50736015e2, 3.55440000, 2.00720000
3.52230629e2, 3.55870000, 2.01400000
3.53738035e2, 3.56320000, 2.01950000
3.55258399e2, 3.56900000, 2.02660000
3.56791889e2, 3.57450000, 2.03470000
3.58338674e2, 3.57940000, 2.04380000
3.59898930e2, 3.58660000, 2.05210000
3.61472832e2, 3.59600000, 2.05940000
3.63060560e2, 3.60590000, 2.06670000
3.64662298e2, 3.61590000, 2.07410000
3.66278231e2, 3.62760000, 2.08260000
3.67908550e2, 3.63890000, 2.09280000
3.69553446e2, 3.65160000, 2.10280000
3.71213118e2, 3.66740000, 2.11470000
3.72887763e2, 3.68320000, 2.12680000
3.74577587e2, 3.70020000, 2.14020000
3.76282796e2, 3.72000000, 2.15310000
3.78003601e2, 3.74010000, 2.16480000
3.79740218e2, 3.76070000, 2.17750000
3.81492866e2, 3.78460000, 2.19280000
3.83261766e2, 3.81080000, 2.20720000
3.85047147e2, 3.83900000, 2.22410000
3.86849240e2, 3.87260000, 2.24250000
3.88668280e2, 3.91270000, 2.26050000
3.90504508e2, 3.95790000, 2.27700000
3.92358169e2, 4.00960000, 2.29020000
3.94229511e2, 4.06900000, 2.29800000
3.96118790e2, 4.13090000, 2.29620000
3.98026264e2, 4.19660000, 2.28420000
3.99952198e2, 4.26310000, 2.26220000
4.01896860e2, 4.32160000, 2.23010000
4.03860525e2, 4.37430000, 2.19190000
4.05843474e2, 4.41860000, 2.15200000
4.07845991e2, 4.45450000, 2.11090000
4.09868368e2, 4.48400000, 2.07410000
4.11910901e2, 4.50860000, 2.04260000
4.13973894e2, 4.53270000, 2.01780000
4.16057655e2, 4.55790000, 1.99940000
4.18162500e2, 4.58810000, 1.98740000
4.20288750e2, 4.62870000, 1.98020000
4.22436734e2, 4.68210000, 1.97170000
4.24606785e2, 4.75190000, 1.95540000
4.26799247e2, 4.83440000, 1.92370000
4.29014468e2, 4.92280000, 1.86710000
4.31252804e2, 5.00840000, 1.78560000
4.33514620e2, 5.07760000, 1.68290000
4.35800286e2, 5.12670000, 1.56600000
4.38110181e2, 5.14710000, 1.44310000
4.40444694e2, 5.14500000, 1.32720000
4.42804219e2, 5.12710000, 1.22400000
4.45189161e2, 5.09880000, 1.13280000
4.47599932e2, 5.06480000, 1.05460000
4.50036956e2, 5.02780000, 9.86910000e-1
4.52500662e2, 4.98990000, 9.24370000e-1
4.54991491e2, 4.95080000, 8.70160000e-1
4.57509894e2, 4.91010000, 8.22580000e-1
4.60056331e2, 4.87110000, 7.80170000e-1
4.62631273e2, 4.83100000, 7.41430000e-1
4.65235202e2, 4.79360000, 7.06220000e-1
4.67868609e2, 4.75720000, 6.75310000e-1
4.70531997e2, 4.72340000, 6.44700000e-1
4.73225883e2, 4.69040000, 6.18080000e-1
4.75950792e2, 4.65900000, 5.93910000e-1
4.78707264e2, 4.62750000, 5.70300000e-1
4.81495850e2, 4.59660000, 5.49710000e-1
4.84317114e2, 4.56600000, 5.29950000e-1
4.87171636e2, 4.53640000, 5.12090000e-1
4.90060005e2, 4.50730000, 4.96730000e-1
4.92982828e2, 4.48000000, 4.80020000e-1
4.95940725e2, 4.45380000, 4.63770000e-1
4.98934331e2, 4.42960000, 4.46440000e-1
5.01964297e2, 4.40480000, 4.30440000e-1
5.05031288e2, 4.38110000, 4.17270000e-1
5.08135989e2, 4.35810000, 4.04980000e-1
5.11279098e2, 4.33650000, 3.92690000e-1
5.14461333e2, 4.31530000, 3.81920000e-1
5.17683429e2, 4.29370000, 3.72250000e-1
5.20946140e2, 4.27230000, 3.64890000e-1
5.24250238e2, 4.25270000, 3.55300000e-1
5.27596516e2, 4.23310000, 3.45950000e-1
5.30985787e2, 4.21430000, 3.36520000e-1
5.34418885e2, 4.19540000, 3.26140000e-1
5.37896665e2, 4.17780000, 3.18810000e-1
5.41420006e2, 4.16110000, 3.12020000e-1
5.44989808e2, 4.14480000, 3.06660000e-1
5.48606997e2, 4.12880000, 3.01210000e-1
5.52272522e2, 4.11330000, 2.96050000e-1
5.55987360e2, 4.09870000, 2.90680000e-1
5.59752511e2, 4.08430000, 2.85530000e-1
5.63569006e2, 4.07050000, 2.79090000e-1
5.67437901e2, 4.05690000, 2.73990000e-1
5.71360282e2, 4.04350000, 2.66880000e-1
5.75337268e2, 4.03040000, 2.62800000e-1
5.79370006e2, 4.01820000, 2.57220000e-1
5.83459677e2, 4.00530000, 2.53910000e-1
5.87607494e2, 3.99260000, 2.48740000e-1
5.91814708e2, 3.98020000, 2.45520000e-1
5.96082602e2, 3.96850000, 2.41050000e-1
6.00412500e2, 3.95630000, 2.37000000e-1
6.04805762e2, 3.94490000, 2.32180000e-1
6.09263790e2, 3.93390000, 2.29160000e-1
6.13788026e2, 3.92330000, 2.24890000e-1
6.18379957e2, 3.91350000, 2.21310000e-1
6.23041112e2, 3.90370000, 2.17240000e-1
6.27773070e2, 3.89420000, 2.13740000e-1
6.32577456e2, 3.88470000, 2.10360000e-1
6.37455945e2, 3.87500000, 2.07460000e-1
6.42410266e2, 3.86620000, 2.04350000e-1
6.47442200e2, 3.85750000, 1.99840000e-1
6.52553586e2, 3.84930000, 1.97240000e-1
6.57746320e2, 3.84170000, 1.96620000e-1
6.63022360e2, 3.83470000, 1.93250000e-1
6.68383727e2, 3.82810000, 1.91460000e-1
6.73832507e2, 3.82110000, 1.88880000e-1
6.79370856e2, 3.81480000, 1.84300000e-1
6.85001002e2, 3.80810000, 1.83460000e-1
6.90725244e2, 3.80090000, 1.82150000e-1
6.96545962e2, 3.79550000, 1.77730000e-1
7.02465616e2, 3.79000000, 1.70730000e-1
7.08486750e2, 3.78440000, 1.64960000e-1
7.14611996e2, 3.77900000, 1.55430000e-1
7.20844077e2, 3.77290000, 1.48150000e-1
7.27185814e2, 3.76550000, 1.41130000e-1
7.33640126e2, 3.75840000, 1.33450000e-1
7.40210038e2, 3.75060000, 1.29330000e-1
7.46898682e2, 3.74310000, 1.30320000e-1
7.53709309e2, 3.73500000, 1.30690000e-1
7.60645284e2, 3.72780000, 1.26680000e-1
7.67710101e2, 3.72060000, 1.24200000e-1
7.74907383e2, 3.71440000, 1.24550000e-1
7.82240891e2, 3.70900000, 1.22230000e-1
7.89714531e2, 3.70060000, 1.19600000e-1
7.97332356e2, 3.69400000, 1.13920000e-1
8.05098580e2, 3.68820000, 1.09030000e-1
8.13017582e2, 3.68330000, 1.09580000e-1
8.21093916e2, 3.67730000, 1.08140000e-1
8.29332316e2, 3.67350000, 1.06280000e-1
8.37737711e2, 3.67000000, 1.00540000e-1
8.46315231e2, 3.66620000, 9.82040000e-2
8.55070216e2, 3.66380000, 9.98670000e-2
8.64008232e2, 3.66400000, 9.65770000e-2
8.73135080e2, 3.66360000, 8.73090000e-2
8.82456806e2, 3.66170000, 7.89640000e-2
8.91979722e2, 3.65720000, 7.57250000e-2
9.01710409e2, 3.64750000, 8.11250000e-2
9.11655745e2, 3.63320000, 8.76670000e-2
9.21822909e2, 3.61680000, 9.21010000e-2
9.32219408e2, 3.59650000, 9.95450000e-2
9.42853090e2, 3.57730000, 1.06310000e-1
9.53732164e2, 3.57270000, 1.03770000e-1
9.64865224e2, 3.56810000, 1.01260000e-1
9.76261270e2, 3.56370000, 9.87980000e-2
9.87929731e2, 3.55940000, 9.63730000e-2
9.99880494e2, 3.55510000, 9.39850000e-2
