wavelength (nm), n, k
2.30000000e2, 1.52474000, 3.62383500
2.32000000e2, 1.64355400, 3.49551400
2.34000000e2, 1.69363000, 3.43673800
2.36000000e2, 1.70026600, 3.42520200
2.38000000e2, 1.68954600, 3.43865100
2.40000000e2, 1.68208600, 3.45175500
2.42000000e2, 1.67915600, 3.46000200
2.44000000e2, 1.68310600, 3.51011200
2.46000000e2, 1.68258000, 3.56350700
2.48000000e2, 1.68431800, 3.62042700
2.50000000e2, 1.69491900, 3.68029800
2.52000000e2, 1.71158600, 3.74609200
2.54000000e2, 1.73574500, 3.82204400
2.56000000e2, 1.74741500, 3.90751200
2.58000000e2, 1.77824700, 3.99606500
2.60000000e2, 1.80576200, 4.09501700
2.62000000e2, 1.84740300, 4.20295000
2.64000000e2, 1.90089000, 4.31412500
2.66000000e2, 1.96678800, 4.44307800
2.68000000e2, 2.04371100, 4.58143500
2.70000000e2, 2.15405600, 4.72432900
2.72000000e2, 2.29679300, 4.86819200
2.74000000e2, 2.46613700, 4.99711400
2.76000000e2, 2.65159300, 5.11220300
2.78000000e2, 2.87104600, 5.20665500
2.80000000e2, 3.09978800, 5.27456300
2.82000000e2, 3.33033800, 5.32035200
2.84000000e2, 3.60146000, 5.35363800
2.86000000e2, 3.89556600, 5.35112800
2.88000000e2, 4.20301200, 5.28143700
2.90000000e2, 4.49059400, 5.12703100
2.92000000e2, 4.72924900, 4.91355200
2.94000000e2, 4.88765300, 4.68183900
2.96000000e2, 4.98159000, 4.46422900
2.98000000e2, 5.03317800, 4.26641900
3.00000000e2, 5.06448000, 4.09358700
3.02000000e2, 5.07841200, 3.94522700
3.04000000e2, 5.07993600, 3.82128900
3.06000000e2, 5.07719400, 3.71397700
3.08000000e2, 5.07367200, 3.62100200
3.10000000e2, 5.07673900, 3.53956200
3.12000000e2, 5.07415800, 3.46822700
3.14000000e2, 5.08066500, 3.40652900
3.16000000e2, 5.08703100, 3.35155300
3.18000000e2, 5.09130700, 3.30461800
3.20000000e2, 5.10630700, 3.25721800
3.22000000e2, 5.11214100, 3.21939700
3.24000000e2, 5.12355300, 3.18084200
3.26000000e2, 5.14194000, 3.14340700
3.28000000e2, 5.16594200, 3.10926900
3.30000000e2, 5.18355500, 3.07677900
3.32000000e2, 5.19873800, 3.04666900
3.34000000e2, 5.22577700, 3.01594500
3.36000000e2, 5.25029100, 2.99212600
3.38000000e2, 5.27429800, 2.96866900
3.40000000e2, 5.30124300, 2.94737600
3.42000000e2, 5.33389400, 2.93183600
3.44000000e2, 5.36548800, 2.91917100
3.46000000e2, 5.40149700, 2.91026100
3.48000000e2, 5.44479300, 2.90416800
3.50000000e2, 5.49781400, 2.90400500
3.52000000e2, 5.56231500, 2.90891900
3.54000000e2, 5.64408100, 2.91876900
3.56000000e2, 5.75221600, 2.92459800
3.58000000e2, 5.88599900, 2.92787000
3.60000000e2, 6.05491700, 2.90308600
3.62000000e2, 6.25366100, 2.82993000
3.64000000e2, 6.46276500, 2.70095900
3.66000000e2, 6.65189400, 2.51185800
3.68000000e2, 6.79771300, 2.26735100
3.70000000e2, 6.88426700, 1.99101800
3.72000000e2, 6.90837200, 1.70132300
3.74000000e2, 6.86590000, 1.43181800
3.76000000e2, 6.77071900, 1.19175800
3.78000000e2, 6.65163100, 9.98273000e-1
3.80000000e2, 6.52020000, 8.45807000e-1
3.82000000e2, 6.37989200, 7.19429000e-1
3.84000000e2, 6.25957900, 6.28192000e-1
3.86000000e2, 6.15173400, 5.56487000e-1
3.88000000e2, 6.04901100, 4.97803000e-1
3.90000000e2, 5.95256600, 4.47766000e-1
3.92000000e2, 5.86415300, 4.06872000e-1
3.94000000e2, 5.78789900, 3.72812000e-1
3.96000000e2, 5.71087100, 3.41727000e-1
3.98000000e2, 5.63774700, 3.15263000e-1
4.00000000e2, 5.57227900, 2.91767000e-1
4.02000000e2, 5.50920900, 2.71161000e-1
4.04000000e2, 5.44970400, 2.54336000e-1
4.06000000e2, 5.39534200, 2.39069000e-1
4.08000000e2, 5.34126200, 2.24358000e-1
4.10000000e2, 5.29125000, 2.12016000e-1
4.12000000e2, 5.24459500, 2.00154000e-1
4.14000000e2, 5.20121300, 1.89730000e-1
4.16000000e2, 5.15892600, 1.80348000e-1
4.18000000e2, 5.11706400, 1.71274000e-1
4.20000000e2, 5.08015000, 1.63005000e-1
4.22000000e2, 5.04451900, 1.56314000e-1
4.24000000e2, 5.00875100, 1.49136000e-1
4.26000000e2, 4.97646100, 1.43175000e-1
4.28000000e2, 4.94439700, 1.37113000e-1
4.30000000e2, 4.91571900, 1.31372000e-1
4.32000000e2, 4.88744400, 1.26170000e-1
4.34000000e2, 4.86015800, 1.21579000e-1
4.36000000e2, 4.83602000, 1.17086000e-1
4.38000000e2, 4.81035400, 1.13655000e-1
4.40000000e2, 4.78542200, 1.08632000e-1
4.42000000e2, 4.76108800, 1.05652000e-1
4.44000000e2, 4.73755700, 1.01790000e-1
4.46000000e2, 4.71353500, 9.84700000e-2
4.48000000e2, 4.69082300, 9.52140000e-2
4.50000000e2, 4.66869200, 9.11980000e-2
4.52000000e2, 4.64783000, 8.85590000e-2
4.54000000e2, 4.62755600, 8.58670000e-2
4.56000000e2, 4.60791300, 8.33770000e-2
4.58000000e2, 4.58882400, 8.10560000e-2
4.60000000e2, 4.57017000, 7.88900000e-2
4.62000000e2, 4.55180400, 7.68750000e-2
4.64000000e2, 4.53400900, 7.48350000e-2
4.66000000e2, 4.51709900, 7.24240000e-2
4.68000000e2, 4.50090600, 6.98900000e-2
4.70000000e2, 4.48516800, 6.76420000e-2
4.72000000e2, 4.46970300, 6.60370000e-2
4.74000000e2, 4.45451300, 6.46150000e-2
4.76000000e2, 4.43941400, 6.30700000e-2
4.78000000e2, 4.42453200, 6.14590000e-2
4.80000000e2, 4.41009600, 5.99100000e-2
4.82000000e2, 4.39631800, 5.84950000e-2
4.84000000e2, 4.38282000, 5.71130000e-2
4.86000000e2, 4.36911300, 5.56760000e-2
4.88000000e2, 4.35554200, 5.42260000e-2
4.90000000e2, 4.34268600, 5.28360000e-2
4.92000000e2, 4.33105300, 5.15620000e-2
4.94000000e2, 4.31996100, 5.03520000e-2
4.96000000e2, 4.30906200, 4.91810000e-2
4.98000000e2, 4.29824600, 4.80570000e-2
5.00000000e2, 4.28735400, 4.70070000e-2
5.02000000e2, 4.27613900, 4.60600000e-2
5.04000000e2, 4.26512700, 4.51000000e-2
5.06000000e2, 4.25485200, 4.39470000e-2
5.08000000e2, 4.24511300, 4.27220000e-2
5.10000000e2, 4.23558100, 4.16230000e-2
5.12000000e2, 4.22603200, 4.08250000e-2
5.14000000e2, 4.21654100, 4.01100000e-2
5.16000000e2, 4.20697200, 3.93460000e-2
5.18000000e2, 4.19745700, 3.85450000e-2
5.20000000e2, 4.18820000, 3.77330000e-2
5.22000000e2, 4.17937800, 3.69090000e-2
5.24000000e2, 4.17082200, 3.61230000e-2
5.26000000e2, 4.16243600, 3.54510000e-2
5.28000000e2, 4.15425600, 3.48560000e-2
5.30000000e2, 4.14640400, 3.42910000e-2
5.32000000e2, 4.13901900, 3.37290000e-2
5.34000000e2, 4.13158300, 3.31060000e-2
5.36000000e2, 4.12329100, 3.22290000e-2
5.38000000e2, 4.11469200, 3.12710000e-2
5.40000000e2, 4.10670700, 3.05190000e-2
5.42000000e2, 4.10013400, 3.02350000e-2
5.44000000e2, 4.09394100, 3.00550000e-2
5.46000000e2, 4.08745100, 2.97340000e-2
5.48000000e2, 4.08076000, 2.92940000e-2
5.50000000e2, 4.07408300, 2.87960000e-2
5.52000000e2, 4.06752200, 2.82530000e-2
5.54000000e2, 4.06096900, 2.76770000e-2
5.56000000e2, 4.05432900, 2.70860000e-2
5.58000000e2, 4.04767300, 2.64850000e-2
5.60000000e2, 4.04108300, 2.58570000e-2
5.62000000e2, 4.03460600, 2.51750000e-2
5.64000000e2, 4.02839400, 2.46240000e-2
5.66000000e2, 4.02283100, 2.45270000e-2
5.68000000e2, 4.01760900, 2.46520000e-2
5.70000000e2, 4.01223500, 2.46150000e-2
5.72000000e2, 4.00627700, 2.40800000e-2
5.74000000e2, 4.00021600, 2.34730000e-2
5.76000000e2, 3.99426000, 2.31030000e-2
5.78000000e2, 3.98847600, 2.28780000e-2
5.80000000e2, 3.98292800, 2.26140000e-2
5.82000000e2, 3.97772200, 2.21710000e-2
5.84000000e2, 3.97275100, 2.17880000e-2
5.86000000e2, 3.96801000, 2.17510000e-2
5.88000000e2, 3.96342300, 2.18700000e-2
5.90000000e2, 3.95888000, 2.18310000e-2
5.92000000e2, 3.95428000, 2.13710000e-2
5.94000000e2, 3.94968000, 2.07860000e-2
5.96000000e2, 3.94507100, 2.01890000e-2
5.98000000e2, 3.94046800, 1.96490000e-2
6.00000000e2, 3.93588700, 1.92570000e-2
6.02000000e2, 3.93134500, 1.91280000e-2
6.04000000e2, 3.92684200, 1.90990000e-2
6.06000000e2, 3.92239400, 1.91090000e-2
6.08000000e2, 3.91799400, 1.90880000e-2
6.10000000e2, 3.91362300, 1.89300000e-2
6.12000000e2, 3.90926700, 1.85110000e-2
6.14000000e2, 3.90497200, 1.80380000e-2
6.16000000e2, 3.90074500, 1.76810000e-2
6.18000000e2, 3.89664400, 1.74050000e-2
6.20000000e2, 3.89276400, 1.71450000e-2
6.22000000e2, 3.88920500, 1.68700000e-2
6.24000000e2, 3.88580100, 1.65870000e-2
6.26000000e2, 3.88242700, 1.62430000e-2
6.28000000e2, 3.87910000, 1.59060000e-2
6.30000000e2, 3.87590400, 1.56970000e-2
6.32000000e2, 3.87292600, 1.57400000e-2
6.34000000e2, 3.86979800, 1.57970000e-2
6.36000000e2, 3.86600200, 1.56290000e-2
6.38000000e2, 3.86182900, 1.53320000e-2
6.40000000e2, 3.85774000, 1.50790000e-2
6.42000000e2, 3.85408300, 1.50030000e-2
6.44000000e2, 3.85067300, 1.49310000e-2
6.46000000e2, 3.84763900, 1.47160000e-2
6.48000000e2, 3.84479500, 1.44240000e-2
6.50000000e2, 3.84183500, 1.41670000e-2
6.52000000e2, 3.83846200, 1.40310000e-2
6.54000000e2, 3.83515100, 1.39280000e-2
6.56000000e2, 3.83244100, 1.38380000e-2
6.58000000e2, 3.82999100, 1.37260000e-2
6.60000000e2, 3.82719200, 1.35360000e-2
6.62000000e2, 3.82349400, 1.31920000e-2
6.64000000e2, 3.81983100, 1.28760000e-2
6.66000000e2, 3.81719800, 1.28230000e-2
6.68000000e2, 3.81506200, 1.28920000e-2
6.70000000e2, 3.81248600, 1.28220000e-2
6.72000000e2, 3.80867100, 1.23790000e-2
6.74000000e2, 3.80480100, 1.19820000e-2
6.76000000e2, 3.80183100, 1.21020000e-2
6.78000000e2, 3.79947100, 1.24740000e-2
6.80000000e2, 3.79720200, 1.26420000e-2
6.82000000e2, 3.79468900, 1.22240000e-2
6.84000000e2, 3.79215900, 1.17330000e-2
6.86000000e2, 3.78967100, 1.16010000e-2
6.88000000e2, 3.78719800, 1.16390000e-2
6.90000000e2, 3.78469500, 1.14850000e-2
6.92000000e2, 3.78213600, 1.08330000e-2
6.94000000e2, 3.77950600, 1.02330000e-2
6.96000000e2, 3.77666100, 1.02210000e-2
6.98000000e2, 3.77377900, 1.05770000e-2
7.00000000e2, 3.77116800, 1.09360000e-2
7.02000000e2, 3.76913000, 1.10480000e-2
7.04000000e2, 3.76712900, 1.10320000e-2
7.06000000e2, 3.76455200, 1.08280000e-2
7.08000000e2, 3.76175600, 1.04990000e-2
7.10000000e2, 3.75938100, 1.01210000e-2
7.12000000e2, 3.75799000, 9.74800000e-3
7.14000000e2, 3.75665100, 9.46000000e-3
7.16000000e2, 3.75455900, 9.43300000e-3
7.18000000e2, 3.75196200, 9.57000000e-3
7.20000000e2, 3.74930500, 9.69000000e-3
7.22000000e2, 3.74687000, 9.63900000e-3
7.24000000e2, 3.74449900, 9.66300000e-3
7.26000000e2, 3.74205000, 1.01650000e-2
7.28000000e2, 3.73974700, 1.07720000e-2
7.30000000e2, 3.73801000, 1.08280000e-2
7.32000000e2, 3.73728200, 9.70600000e-3
7.34000000e2, 3.73657800, 8.50400000e-3
7.36000000e2, 3.73493300, 8.22300000e-3
7.38000000e2, 3.73265100, 8.51800000e-3
7.40000000e2, 3.73027400, 8.79000000e-3
7.42000000e2, 3.72816200, 8.63100000e-3
7.44000000e2, 3.72604300, 8.31900000e-3
7.46000000e2, 3.72362100, 7.77300000e-3
7.48000000e2, 3.72125100, 7.20300000e-3
7.50000000e2, 3.71958900, 6.94500000e-3
7.52000000e2, 3.71931000, 7.33800000e-3
7.54000000e2, 3.71899900, 7.85400000e-3
7.56000000e2, 3.71731200, 8.13700000e-3
7.58000000e2, 3.71466000, 8.18900000e-3
7.60000000e2, 3.71167800, 8.04400000e-3
7.62000000e2, 3.70867200, 7.66600000e-3
7.64000000e2, 3.70618000, 7.16600000e-3
7.66000000e2, 3.70555800, 6.50100000e-3
7.68000000e2, 3.70583200, 5.88600000e-3
7.70000000e2, 3.70538800, 5.68100000e-3
7.72000000e2, 3.70282500, 6.27200000e-3
7.74000000e2, 3.69987100, 6.93600000e-3
7.76000000e2, 3.69763000, 7.04400000e-3
7.78000000e2, 3.69592600, 6.74800000e-3
7.80000000e2, 3.69439800, 6.29500000e-3
7.82000000e2, 3.69290600, 5.79100000e-3
7.84000000e2, 3.69137900, 5.44700000e-3
7.86000000e2, 3.68954500, 5.61900000e-3
7.88000000e2, 3.68758700, 6.18800000e-3
7.90000000e2, 3.68577300, 7.03000000e-3
7.92000000e2, 3.68430900, 8.14400000e-3
7.94000000e2, 3.68317000, 8.90200000e-3
7.96000000e2, 3.68277900, 8.31600000e-3
7.98000000e2, 3.68261500, 6.91000000e-3
8.00000000e2, 3.68181800, 5.48300000e-3
8.02000000e2, 3.67956000, 4.61400000e-3
8.04000000e2, 3.67710100, 4.20900000e-3
8.06000000e2, 3.67549800, 4.80700000e-3
8.08000000e2, 3.67439900, 5.93600000e-3
8.10000000e2, 3.67314000, 6.88100000e-3
8.12000000e2, 3.67123500, 7.04000000e-3
8.14000000e2, 3.66933300, 6.82800000e-3
8.16000000e2, 3.66799300, 6.14700000e-3
8.18000000e2, 3.66696000, 5.28500000e-3
8.20000000e2, 3.66573200, 4.67500000e-3
8.22000000e2, 3.66386500, 4.74000000e-3
8.24000000e2, 3.66226500, 5.00500000e-3
8.26000000e2, 3.66220100, 5.25500000e-3
8.28000000e2, 3.66275500, 5.43300000e-3
8.30000000e2, 3.66228600, 5.48100000e-3
8.32000000e2, 3.65927000, 5.30000000e-3
8.34000000e2, 3.65637200, 5.00500000e-3
8.36000000e2, 3.65475700, 4.63500000e-3
8.38000000e2, 3.65558900, 4.22700000e-3
8.40000000e2, 3.66003400, 3.82100000e-3
